T (K) P (kPa) eta (Pa*s)
273.4	101.325	0.0007
285.323	101.325	0.000594
296.057	101.325	0.00052
306.093	101.325	0.000463
317.019	101.325	0.000411
327.856	101.325	0.000367
339.584	101.325	0.000328
350.943	101.325	0.000296
361.453	101.325	0.000269
371.644	101.325	0.000247
382.196	101.325	0.000227
395.198	101.325	0.000204
273.4	101.325	0.000702
285.323	101.325	0.000596
296.057	101.325	0.000521
306.093	101.325	0.000464
317.019	101.325	0.000412
327.856	101.325	0.000368
339.584	101.325	0.000328
350.943	101.325	0.000296
361.453	101.325	0.000269
371.644	101.325	0.000247
382.196	101.325	0.000227
395.198	101.325	0.000204
288.141	101.325	0.000579
303.134	101.325	0.000472
273.15	101.325	0.000706
283.144	101.325	0.0006159
293.138	101.325	0.0005419
303.134	101.325	0.0004828
313.13	101.325	0.0004328
323.127	101.325	0.0004907
333.124	101.325	0.0003551
343.124	101.325	0.0003241
353.123	101.325	0.0002971
363.123	101.325	0.000273
373.124	101.325	0.000253
383.126	101.325	0.0002335
393.127	101.325	0.000216
298.136	101.325	0.0005083
211.196	101.325	0.00266
212.196	101.325	0.00258
213.196	101.325	0.00239
214.195	101.325	0.00241
215.194	101.325	0.00234
215.694	101.325	0.0023
216.194	101.325	0.00226
217.193	101.325	0.0219
219.191	101.325	0.00206
221.19	101.325	0.00196
223.188	101.325	0.00185
233.182	101.325	0.00145
253.166	101.325	0.000971
273.15	101.325	0.000703
293.138	101.325	0.000539
263.158	101.325	0.0008314
293.138	101.325	0.0005479
323.127	101.325	0.0003928
372.624	101.325	0.0002563
223.188	101.325	0.001848
233.182	101.325	0.00143
243.174	101.325	0.001157
253.166	101.325	0.000969
263.158	101.325	0.000825
293.138	101	0.000539
313.13	101	0.000429
333.124	101	0.000348
303.134	101.325	0.000486513
328.126	101.325	0.000374013
348.124	101.325	0.000313413
368.124	101.325	0.000265813
273.15	101.325	0.0007091
293.138	101.325	0.0005428
310.931	101.325	0.0004437
333.124	101.325	0.0003524
569.383	101.325	0.0001045
569.383	2496.65	0.0002645
273.1	100	0.000712
273.1	50000	0.00121
273.1	100000	0.00173
273.1	150000	0.00235
273.1	200000	0.003119
273.1	250000	0.00445
303.143	100	0.000487
303.143	50000	0.0007889
303.143	100000	0.0011006
303.143	150000	0.0015194
303.143	200000	0.0019918
303.143	250000	0.0025714
303.143	300000	0.0033262
303.143	350000	0.00431
303.143	400000	0.0056687
333.134	100	0.000359
333.134	50000	0.00056
333.134	100000	0.0008006
333.134	150000	0.0010591
333.134	200000	0.0013391
333.134	250000	0.0016586
333.134	300000	0.0020786
333.134	350000	0.0027212
333.134	400000	0.0035721
293.145	101.325	0.000537
298.144	101.325	0.000506
303.143	101.325	0.000478
313.14	101.325	0.000428
293.145	101.325	0.000546
312.99	101.325	0.000446
323.087	101.325	0.0004047
333.084	101.325	0.0003674
343.082	101.325	0.0003312
353.279	101.325	0.0003013
363.476	101.325	0.0002758
292.995	101.325	0.000541
298.224	100	0.000509
298.224	53600	0.000852
298.224	102500	0.001204
298.224	149400	0.001666
298.224	202000	0.002274
298.224	252100	0.003044
298.224	305100	0.004059
298.224	353600	0.005229
298.224	401500	0.006683
298.224	453000	0.00867
323.237	100	0.000387
323.237	52400	0.000624
323.237	99900	0.000879
323.237	150600	0.001206
323.237	200200	0.001593
323.237	253500	0.002099
323.237	302000	0.002654
323.237	354300	0.003385
323.237	408800	0.004314
323.237	455000	0.00526
323.237	505500	0.006497
348.271	100	0.000304
348.271	47500	0.000476
348.271	103100	0.000702
348.271	153900	0.000945
348.271	203400	0.00122
348.271	253700	0.001555
348.271	303100	0.001936
348.271	352100	0.002381
348.271	405300	0.002946
348.271	452600	0.003538
348.271	503000	0.00427
373.094	100	0.000246
373.094	48800	0.000397
373.094	103600	0.000574
373.094	162100	0.000799
373.094	197700	0.00095
373.094	250900	0.001206
373.094	302300	0.001487
373.094	354400	0.001826
373.094	404600	0.002206
298.144	100	0.0005094
298.144	10000	0.000563649
298.144	20000	0.000620978
298.144	30000	0.000680831
298.144	40000	0.000743189
298.144	50000	0.000808031
298.144	60000	0.000875341
298.144	70000	0.000945101
298.144	80000	0.00101729
298.144	90000	0.00109191
298.144	100000	0.00116892
298.144	110000	0.00124832
303.143	100	0.0004806
303.143	10000	0.000532601
303.143	20000	0.00058724
303.143	30000	0.00064396
303.143	40000	0.00070272
303.143	50000	0.000763483
303.143	60000	0.000826213
303.143	70000	0.000890879
303.143	80000	0.000957449
303.143	90000	0.00102589
303.143	100000	0.00109619
303.143	110000	0.0011683
323.137	100	0.0003862
323.137	10000	0.000429793
323.137	20000	0.000475051
323.137	30000	0.000521484
323.137	40000	0.00056904
323.137	50000	0.000617676
323.137	60000	0.00066735
323.137	70000	0.000718025
323.137	80000	0.000769667
323.137	90000	0.000822246
323.137	100000	0.000875732
323.137	110000	0.000930099
348.131	100	0.0003024
348.131	10000	0.00033925
348.131	20000	0.000376857
348.131	30000	0.000414818
348.131	40000	0.000453106
348.131	50000	0.000491699
348.131	60000	0.000530578
348.131	70000	0.000569724
348.131	80000	0.000609124
348.131	90000	0.000648763
348.131	100000	0.000688629
348.131	110000	0.000728713
298.144	101.325	0.0005194
298.144	101.325	0.0005184
218.159	116.9	0.0021771
223.159	116.8	0.0019005
223.159	9916	0.0021445
223.159	19714	0.0024173
223.159	29513	0.0027201
228.158	115.8	0.0016709
228.158	9916	0.0018889
228.158	14814	0.0020003
228.158	29512	0.0024065
228.158	44210	0.0028285
228.158	58908	0.0033093
243.156	117.5	0.0011887
243.156	9911	0.0013376
243.156	19710	0.0014897
243.156	39308	0.0018083
243.156	49106	0.0020019
243.156	58904	0.002219
258.153	117.6	0.0009081
258.153	9917	0.0010183
258.153	19715	0.0011268
258.153	39312	0.0013731
258.153	49111	0.0015008
258.153	58910	0.0016482
273.15	128.8	0.0007138
273.15	9928	0.0007928
273.15	19726	0.0008747
273.15	29524	0.00096
273.15	49120	0.0011478
273.15	58919	0.0012527
298.144	128.5	0.0005151
298.144	9928	0.0005718
298.144	19727	0.0006295
298.144	29526	0.0006877
298.144	30324	0.0007482
298.144	49123	0.000812
298.144	58920	0.0008796
323.137	128.5	0.0003843
323.137	9929	0.0004301
323.137	19729	0.0004746
323.137	39324	0.0005565
323.137	49124	0.0006123
323.137	58920	0.0006565
348.131	120.3	0.0003007
348.131	14818	0.0003593
348.131	29516	0.0004152
348.131	44214	0.000471
348.131	58908	0.0005271
373.124	115.2	0.0002428
373.124	14812	0.000291
373.124	29510	0.0003382
373.124	44207	0.0003858
373.124	58911	0.000444
398.119	114	0.0001984
398.119	604.1	0.0001994
398.119	14811	0.0002429
398.119	29509	0.0002842
398.119	44206	0.000325
398.119	58905	0.0003656
423.114	403.5	0.0001664
423.114	3049	0.0001769
423.114	14803	0.0002055
423.114	29503	0.0002443
423.114	44201	0.0002809
423.114	58900	0.0003165
448.111	593.6	0.0001373
448.111	3043	0.0001503
448.111	14801	0.0001753
448.111	29498	0.0002111
448.111	44198	0.0002426
448.111	58897	0.0002726
473.11	595.6	0.0001123
473.11	7915	0.0001346
473.11	8045	0.0001352
473.11	14803	0.0001521
473.11	19698	0.0001641
473.11	44196	0.0002146
473.11	58895	0.0002418
498.11	1084	9.19E-05
498.11	3046	9.94E-05
498.11	7942	0.0001129
498.11	14803	0.0001316
498.11	29500	0.000164
498.11	44197	0.000192
498.11	58894	0.000218
523.11	1379	7.27E-05
523.11	3043	8.20E-05
523.11	7943	9.73E-05
523.11	14789	0.0001148
523.11	19493	0.000125
523.11	58893	0.0001966
548.111	2066	5.59E-05
548.111	3745	6.21E-05
548.111	7942	8.20E-05
548.111	14810	0.0001003
548.111	29499	0.0001291
548.111	58893	0.0001772
573.111	3044	4.03E-05
573.111	4022	5.05E-05
573.111	5003	5.64E-05
573.111	5981	6.05E-05
573.111	7944	6.80E-05
573.111	9903	7.48E-05
573.111	14801	8.90E-05
573.111	19699	9.78E-05
573.111	29408	0.0001154
573.111	44195	0.0001401
573.111	58903	0.0001624
598.11	4026	3.54E-05
598.11	5984	4.90E-05
598.11	7944	5.67E-05
598.11	9974	6.35E-05
598.11	19702	8.69E-05
598.11	29498	0.0001045
598.11	44196	0.0001278
598.11	58896	0.0001496
623.109	9899	5.39E-05
623.109	14797	6.70E-05
623.109	29494	9.50E-05
623.109	44192	0.0001169
623.109	58805	0.000138
303.143	101	0.0004715
303.153	101.3	0.00048433
303.153	101.325	0.00048433
308.152	101.3	0.00045677
308.152	101.325	0.00045677
318.149	101.325	0.0004138
328.146	101.325	0.0003706
293.725	101.325	0.0005373
313.25	101.325	0.00043
333.204	101.325	0.0003509
352.289	101.325	0.0002944
369.895	101.325	0.0002526
298.1	101.325	0.000515
323.1	101.325	0.000388
323	12860	0.0004435
323	24400	0.0004994
323	34520	0.0005491
323	44990	0.0006047
323	55570	0.0006752
323	64650	0.0007174
348	8730	0.0003353
348	15490	0.0003637
348	24050	0.0003907
348	34910	0.0004344
348	44800	0.0004784
348	55650	0.0005368
348	65300	0.0005858
373	8000	0.000272
373	9040	0.0002742
373	15580	0.0003
373	23820	0.0003245
373	35240	0.0003675
373	45010	0.0004047
373	55200	0.0004424
373	66480	0.0004865
398	13570	0.0002451
398	22500	0.0002726
398	23870	0.0002794
398	34570	0.0003043
398	41850	0.0003286
398	44900	0.0003353
398	55440	0.0003694
398	58450	0.0003762
398	65680	0.0004009
423	14850	0.000216
423	23500	0.0002398
423	33240	0.0002607
423	36640	0.0002654
423	46640	0.000293
423	56400	0.0003143
423	63390	0.000334
423	66350	0.000336
448	11540	0.0001868
448	19410	0.0002136
448	29160	0.0002228
448	34370	0.0002365
448	37760	0.0002354
448	42760	0.000244
448	51400	0.0002576
448	55410	0.0002669
448	58210	0.0002697
303.15	100	0.0004808
303.15	5620	0.0005097
303.15	10520	0.0005363
303.15	15810	0.000565
303.15	21110	0.0005949
303.15	26710	0.0006265
303.15	31840	0.0006559
303.15	52360	0.0007794
303.15	75380	0.0009293
303.15	101660	0.0011188
303.15	126100	0.0013136
303.15	152000	0.0015443
303.15	174700	0.0017718
303.15	202710	0.0020805
303.15	226480	0.0023757
303.15	253070	0.0027483
323.15	180	0.0003875
323.15	5120	0.0004097
323.15	10380	0.0004333
323.15	15920	0.0004585
323.15	20860	0.000481
323.15	25950	0.0005043
323.15	31260	0.0005291
323.15	50750	0.000622
323.15	76380	0.0007525
323.15	101790	0.0008937
323.15	126510	0.0010422
323.15	152310	0.001214
323.15	174480	0.0013919
323.15	201530	0.001591
323.15	226700	0.0018117
323.15	251850	0.0020518
348.15	230	0.0003051
348.15	5110	0.0003235
348.15	10550	0.000344
348.15	15600	0.000363
348.15	20670	0.0003821
348.15	25850	0.0004014
348.15	30680	0.0004193
348.15	53300	0.0005062
348.15	76420	0.0005986
348.15	101810	0.0007101
348.15	126310	0.000817
348.15	152080	0.0009429
348.15	175280	0.0010652
348.15	200640	0.0012082
348.15	225830	0.0013632
348.15	247410	0.0015057
303.15	101	0.000483
313.15	101	0.0004201
298.15	101.325	0.000506
303.15	101.325	0.000477
308.15	101.325	0.00045
313.15	101.325	0.000425
318.15	101.325	0.000403
298.15	101.325	0.00051
303.15	101.325	0.000479
308.15	101.325	0.000453
313.15	101.325	0.000426
298.15	101.325	0.0005094
293.15	101.325	0.0005425
298.15	101.325	0.0005103
303.15	101.325	0.000481
308.15	101.325	0.0004541
313.15	101.325	0.0004295
298.15	101.325	0.000506
298.15	101.325	0.000505
303.15	101.325	0.000479
308.15	101.325	0.00045
298.15	101.325	0.000509
303.15	101.325	0.000478
308.15	101.325	0.000453
283.15	11960	0.000692
283.15	25490	0.000791
283.15	48460	0.000985
283.15	73500	0.001206
283.15	98500	0.001455
283.15	148100	0.002056
283.15	198600	0.002855
283.15	248000	0.003872
283.15	273000	0.004911
283.15	298600	0.005228
283.15	322050	0.005989
283.15	364500	0.007631
283.15	366000	0.007672
298.14	12660	0.000587
298.14	22940	0.000655
298.14	49140	0.000814
298.14	98830	0.001183
298.14	148510	0.00164
298.14	199240	0.00223
298.14	248690	0.002959
298.14	298750	0.003893
298.14	349000	0.005069
298.14	363730	0.005468
298.14	364800	0.005494
323.15	100	0.0003875
323.15	12860	0.000445
323.15	24220	0.000496
323.15	49110	0.000613
323.15	98950	0.000871
323.15	148520	0.001182
323.15	198940	0.001561
323.15	248860	0.002015
323.15	297630	0.002549
323.15	347000	0.003208
323.15	365770	0.00349
347.52	12370	0.000355
347.52	26690	0.000406
347.52	51440	0.000499
347.52	76730	0.000597
347.52	100850	0.000702
347.52	151370	0.000939
347.52	199450	0.001206
347.52	250580	0.001534
347.52	273200	0.001701
347.52	293830	0.001902
347.52	325390	0.002121
347.52	350360	0.002361
347.52	373370	0.002603
353.15	12400	0.000338
353.15	48680	0.000466
353.15	98790	0.000658
353.15	148840	0.000878
353.15	198130	0.001127
353.15	247770	0.001419
353.15	297790	0.001763
353.15	347270	0.002162
353.15	369660	0.002363
298.15	101.325	0.000522
293.15	101.325	0.000542
293.15	101.325	0.000537
298.15	101.325	0.000499
303.15	101.325	0.000476
308.15	101.325	0.000453
298.15	101.325	0.000508
303.15	101.325	0.000479
308.15	101.325	0.000453
297.95	101	0.0005195
297.95	4995	0.0005602
297.95	9913	0.0005894
297.95	14815	0.0006378
297.95	21696	0.0006688
297.95	24626	0.0007056
313.05	101	0.0004377
313.05	4995	0.0004645
313.05	9913	0.0004986
313.05	14815	0.0005249
313.05	21696	0.0005569
313.05	24626	0.0005739
328.05	101	0.0003744
328.05	4995	0.0004066
328.05	9913	0.0004072
328.05	14815	0.0004492
328.05	21696	0.0004863
328.05	24626	0.0005075
343.15	101	0.0003171
343.15	4995	0.0003474
343.15	9913	0.0003471
343.15	14815	0.0003813
343.15	21696	0.0004048
343.15	24626	0.0004289
358.25	101	0.0002769
358.25	4995	0.0003091
358.25	9913	0.0003185
358.25	14815	0.0003387
358.25	21696	0.0003468
358.25	24626	0.0003793
373.35	101	0.0002486
373.35	4995	0.000267
373.35	9913	0.0002824
373.35	14815	0.0003074
373.35	21696	0.0003178
373.35	24626	0.0003337
283.15	101.325	0.000613
293.15	101.325	0.000541
303.15	101.325	0.000481
313.15	101.325	0.000431
298.15	101.325	0.000503
303.15	101.325	0.000472
308.15	101.325	0.000445
278.15	101.325	0.00067
288.15	101.325	0.000588
298.15	101.325	0.000518
308.15	101.325	0.000471
318.15	101.325	0.000423
293.15	101.32	0.000538
298.15	101.32	0.000507
303.15	101.32	0.000477
298.15	101.325	0.000518
303.15	101	0.000483
283.15	101.325	0.000614
293.15	101.325	0.000542
298.15	101.325	0.000508
303.15	101.325	0.000483
313.15	101.325	0.00043
298.15	100	0.00051
298.15	100	0.00051
298.15	20900	0.000631
298.15	20900	0.000631
298.15	40600	0.000753
298.15	40600	0.000753
298.15	60900	0.000889
298.15	60900	0.000889
298.15	80000	0.00104
298.15	80000	0.00104
298.15	80100	0.00103
298.15	80100	0.00103
298.15	100300	0.00119
298.15	100300	0.00119
298.15	120100	0.00136
298.15	120100	0.00136
298.15	139700	0.00155
298.15	139700	0.00156
298.15	139800	0.00155
298.15	139900	0.00155
298.15	159300	0.00175
298.15	159500	0.00175
298.15	179200	0.00198
298.15	179600	0.00198
298.15	197200	0.00221
323.15	100	0.000387
323.15	100	0.000387
323.15	100	0.000387
323.15	100	0.000387
323.15	100	0.000387
323.15	100	0.000387
323.15	20100	0.000477
323.15	20100	0.000477
323.15	40000	0.00057
323.15	40000	0.00057
323.15	60600	0.000672
323.15	60600	0.000672
323.15	80100	0.000777
323.15	80100	0.000778
323.15	80100	0.000781
323.15	80100	0.000781
323.15	101000	0.000897
323.15	101000	0.000897
323.15	120300	0.00101
323.15	120300	0.00101
323.15	141500	0.00115
323.15	141500	0.00115
323.15	141600	0.00115
323.15	141600	0.00115
323.15	160200	0.00128
323.15	160300	0.00128
323.15	180700	0.00144
323.15	180700	0.00144
323.15	201800	0.00161
323.15	201800	0.00161
348.15	100	0.000304
348.15	100	0.000304
348.15	100	0.000304
348.15	100	0.000304
348.15	20400	0.00038
348.15	20400	0.000381
348.15	40800	0.000457
348.15	40800	0.000457
348.15	60700	0.000533
348.15	60700	0.000534
348.15	80100	0.000614
348.15	80100	0.000614
348.15	80100	0.000614
348.15	80100	0.000614
348.15	101000	0.000706
348.15	101000	0.000706
348.15	120300	0.000794
348.15	120400	0.000794
348.15	140100	0.000892
348.15	140100	0.000892
348.15	140200	0.000893
348.15	140200	0.000894
348.15	140300	0.000892
348.15	140300	0.000892
348.15	160700	0.000997
348.15	160700	0.000997
348.15	180700	0.00111
348.15	180800	0.00111
348.15	201900	0.00123
348.15	201900	0.00123
373.15	100	0.000245
373.15	100	0.000245
373.15	20600	0.000312
373.15	20600	0.000312
373.15	39900	0.000373
373.15	39900	0.000373
373.15	60000	0.000437
373.15	60000	0.000437
373.15	80200	0.000503
373.15	80200	0.000504
373.15	101100	0.000576
373.15	101100	0.000576
373.15	120000	0.000645
373.15	120000	0.000645
373.15	140900	0.000725
373.15	140900	0.000726
373.15	160300	0.000804
373.15	160300	0.000804
373.15	180500	0.00089
373.15	180500	0.00089
373.15	200900	0.000981
373.15	200900	0.000981
398.15	21600	0.000263
398.15	21600	0.000263
398.15	21600	0.000263
398.15	21600	0.000265
398.15	42000	0.00032
398.15	79400	0.000426
398.15	80900	0.000429
398.15	80900	0.00043
398.15	81000	0.000429
398.15	120900	0.00055
398.15	159500	0.000674
398.15	160100	0.000677
398.15	160200	0.000676
398.15	160200	0.000676
398.15	192300	0.000785
398.15	192300	0.000786
398.15	192300	0.000786
423.15	21400	0.000226
423.15	21400	0.000226
423.15	21400	0.000226
423.15	21400	0.000226
423.15	41100	0.000276
423.15	80400	0.000372
423.15	80700	0.000372
423.15	80700	0.000372
423.15	80700	0.000372
423.15	121500	0.000476
423.15	159700	0.000581
423.15	161300	0.000586
423.15	161300	0.000587
423.15	161300	0.000587
423.15	192400	0.000676
423.15	192500	0.000676
423.15	192500	0.000677
448.15	21000	0.000192
448.15	21000	0.000192
448.15	21000	0.000192
448.15	21000	0.000192
448.15	41200	0.000239
448.15	80500	0.000324
448.15	81300	0.000326
448.15	81300	0.000326
448.15	81400	0.000326
448.15	121500	0.000414
448.15	159400	0.000504
448.15	160300	0.000504
448.15	160300	0.000504
448.15	160400	0.000504
448.15	192900	0.000585
448.15	192900	0.000585
448.15	193000	0.000585
473.15	19300	0.000163
473.15	19300	0.000163
473.15	19300	0.000163
473.15	20000	0.000164
473.15	41100	0.00021
473.15	81100	0.000289
473.15	81500	0.000289
473.15	81500	0.000289
473.15	81500	0.000289
473.15	121100	0.000367
473.15	160700	0.000448
473.15	161300	0.000448
473.15	161300	0.000449
473.15	161400	0.000449
473.15	193400	0.000516
473.15	193600	0.000516
473.15	193700	0.000516
293.15	101.3	0.000538
298.15	101.3	0.000506
303.15	101.3	0.000478
293.15	101.325	0.000538
298.15	101.325	0.000506
303.15	101.325	0.000478
313.15	150	0.000429
313.15	6100	0.000454
333.15	250	0.000347
333.15	6100	0.000367
353.15	300	0.00029
353.15	6100	0.000307
373.15	350	0.000246
373.15	6100	0.000261
393.15	450	0.000223
393.15	6100	0.000236
298.15	101.325	0.000517
303.15	101.325	0.000484
323.15	101	0.000386
298.15	101.3	0.0005206
303.15	101.3	0.0004837
313.15	101.3	0.0004306
323.15	101.3	0.0003864
333.15	101.3	0.0003495
343.15	101.3	0.0003139
353.15	101.3	0.000284
293.15	101	0.0005464
298.15	101	0.0005123
303.15	101	0.000483
298.15	101.325	0.000501
293.15	101.325	0.000534
298.15	101.325	0.000501
303.15	101.325	0.000472
313.15	101.325	0.000422
323.15	101.325	0.00038
333.15	101.325	0.000343
343.15	101.325	0.000314
353.15	101.325	0.000287
363.15	101.325	0.000261
298.24	100	0.000508
308.72	5000	0.0004786
308.72	10000	0.0005043
323.93	100	0.0003829
348.64	100	0.0003034
349.46	5000	0.0003187
349.46	10000	0.0003364
394.81	5000	0.0002197
394.81	10000	0.0002334
436.86	5000	0.0001672
436.86	10000	0.0001799
467.46	5000	0.0001338
467.46	10000	0.0001458
298.15	101	0.000514
303.15	101	0.000482
308.15	101	0.000456
323.151	100	0.0003892
323.151	10096	0.00044
323.151	20701	0.000495
323.151	30654	0.00053
323.151	41050	0.000576
323.151	54543	0.000633
323.151	68036	0.000693
348.144	100	0.0003011
348.144	7551	0.0003338
348.144	13680	0.0003513
348.144	20500	0.000378
348.144	27466	0.0004008
348.144	27469	0.0004
348.144	34305	0.000424
348.144	34314	0.000424
348.144	41226	0.000449
348.144	41227	0.000449
348.144	48070	0.000471
348.144	55000	0.000498
348.144	55004	0.000499
348.144	61992	0.000522
348.144	61994	0.000533
373.12	6723	0.0002757
373.12	6724	0.0002758
373.12	20592	0.0003205
373.12	20599	0.0003217
373.12	27397	0.0003429
373.12	27402	0.0003429
373.12	34317	0.0003646
373.12	34324	0.0003649
373.12	41184	0.000381
373.12	41207	0.00038
373.12	41221	0.000384
373.12	48024	0.000409
373.12	48032	0.000409
373.12	54853	0.000433
373.12	54866	0.000432
373.12	61686	0.000447
373.12	61704	0.000449
423.09	14725	0.000229
423.09	27159	0.000252
423.09	40831	0.000287
423.09	54591	0.000344
423.09	68420	0.000352
293.15	101.325	0.0005412
298.15	101.325	0.0005153
303.15	101.325	0.0004814
273.15	100	0.000705
273.15	10000	0.000793
273.15	20000	0.000871
273.15	30000	0.000971
293.15	100	0.000544
293.15	10000	0.000596
293.15	20000	0.000659
293.15	30000	0.000717
313.15	100	0.000429
313.15	10000	0.000483
313.15	20000	0.000536
313.15	30000	0.000593
333.15	100	0.000351
333.15	10000	0.000388
333.15	20000	0.000441
333.15	30000	0.000482
303.15	101.3	0.000477
298.15	101	0.000518
273.15	101.325	0.000718
278.15	101.325	0.000671
283.15	101.325	0.000623
288.15	101.325	0.000584
293.15	101.325	0.000545
298.15	101.325	0.000514
303.15	101.325	0.000486
308.15	101.325	0.000459
313.15	101.325	0.000434
318.15	101.325	0.000415
323.15	101.325	0.000394
328.15	101.325	0.000375
333.15	101.325	0.000357
303.15	101	0.000477
298.15	101	0.000518
298.15	101	0.000518
298.15	101.325	0.000518
298.15	101.325	0.000518
293.15	101	0.0005439
298.15	101	0.0005177
303.15	101	0.0004795
313.15	101	0.0004358
298.15	100	0.00051
298.15	20900	0.000631
298.15	40600	0.000753
298.15	60900	0.000889
298.15	80000	0.00104
298.15	80100	0.00103
298.15	100300	0.00119
298.15	120100	0.00136
298.15	139700	0.001555
298.15	139900	0.00155
298.15	159500	0.00175
298.15	179600	0.00198
298.15	197200	0.00221
323.15	100	0.000387
323.15	100	0.000387
323.15	20100	0.000477
323.15	40000	0.00057
323.15	60600	0.000672
323.15	80100	0.000778
323.15	80100	0.000781
323.15	101000	0.000897
323.15	120300	0.00101
323.15	141500	0.00115
323.15	141600	0.00115
323.15	160300	0.00128
323.15	180700	0.00144
323.15	201800	0.00161
348.15	100	0.000304
348.15	100	0.000304
348.15	20400	0.000381
348.15	40800	0.000457
348.15	60700	0.000534
348.15	80100	0.000614
348.15	80100	0.000614
348.15	101000	0.000706
348.15	120400	0.000794
348.15	140200	0.000893
348.15	140300	0.000892
348.15	160700	0.000997
348.15	180800	0.00111
348.15	201900	0.00123
373.15	100	0.000245
373.15	20600	0.000312
373.15	39900	0.000373
373.15	60000	0.000437
373.15	80200	0.000503
373.15	101100	0.000576
373.15	120000	0.000645
373.15	140900	0.000726
373.15	160300	0.000804
373.15	180500	0.00089
373.15	200900	0.000981
398.15	21600	0.000263
398.15	21600	0.000265
398.15	42000	0.00032
398.15	79400	0.000426
398.15	80900	0.00043
398.15	120900	0.00055
398.15	159500	0.000674
398.15	160200	0.000676
398.15	192300	0.000786
423.15	21400	0.000226
423.15	21400	0.000226
423.15	41100	0.000276
423.15	80400	0.000372
423.15	80700	0.000372
423.15	121500	0.000476
423.15	159700	0.000581
423.15	161300	0.000587
423.15	192500	0.000676
448.15	21000	0.000192
448.15	21000	0.000192
448.15	41200	0.000239
448.15	80500	0.000324
448.15	81400	0.000326
448.15	121500	0.000414
448.15	159400	0.000504
448.15	160300	0.000504
448.15	193000	0.000585
473.15	19300	0.000163
473.15	20000	0.000164
473.15	41100	0.00021
473.15	81100	0.000289
473.15	81500	0.000289
473.15	121100	0.000367
473.15	160700	0.000448
473.15	161300	0.000449
473.15	193400	0.000516
293.15	101.325	0.0005374
298.15	101.325	0.0005087
303.15	101	0.000491
308.15	101	0.00045
313.15	101	0.000415
323.2	180	0.000391
323.2	2280	0.000382
323.2	5120	0.000414
323.2	10380	0.00043
298.15	101.3	0.0005177
303.15	101.325	0.0004918
293.15	101	0.000556
298.15	101	0.000529
303.15	101	0.000501
313.15	101	0.000456
303.15	101	0.000491
308.15	101	0.00045
313.15	101	0.000415
293.15	101	0.000545
298.15	101	0.000513
303.15	101	0.000485
308.15	101	0.000459
313.15	101	0.000433
318.15	101	0.000412
323.15	101	0.000392
283.15	101	0.000613
293.15	101	0.000541
298.15	101	0.00051
303.15	101	0.000481
293.15	100	0.000546
298.15	100	0.000521
303.15	100	0.00049
308.15	100	0.000467
313.15	100	0.000442
293.15	101	0.0005428
298.15	101	0.0005186
303.15	101	0.0004842
308.15	101	0.0004641
303.2	3100	0.0004911
313.3	3100	0.0004414
323.2	3100	0.0003967
333.2	3100	0.0003632
343.2	3100	0.0003352
353.1	3100	0.0003012
363.2	3100	0.0002766
373.3	3100	0.0002545
383	3100	0.0002341
393.1	3100	0.0002208
403.2	3100	0.0002021
413.2	3100	0.0001924
423.2	3100	0.0001762
433.1	3100	0.0001642
443.2	3100	0.0001527
453.1	3100	0.0001416
463.2	3100	0.0001322
473.1	3100	0.0001228
483.1	3100	0.0001139
493.1	3100	0.0001069
503	3100	9.95E-05
293.15	100	0.000547
298.15	100	0.000517
303.15	100	0.000491
308.15	100	0.000468
313.15	100	0.000447
304.1	11100	0.000545
304.1	23500	0.000615
304.1	36700	0.000678
304.1	57200	0.000798
304.1	83100	0.000965
304.1	106000	0.001127
304.1	127600	0.001287
304.1	156500	0.001543
304.1	182400	0.001801
304.1	208000	0.002073
304.1	237000	0.002401
326	9100	0.000424
326	9700	0.000429
326	23000	0.000488
326	37400	0.000552
326	56400	0.00064
326	84000	0.000781
326	126200	0.001033
326	150900	0.001174
326	180700	0.001376
326	209800	0.001598
326	237300	0.001819
428.7	7800	0.000188
428.7	10800	0.000196
428.7	10900	0.000196
428.7	21800	0.000224
428.7	36000	0.000257
428.7	50400	0.000291
428.7	71300	0.000341
428.7	99000	0.00041
428.7	126800	0.000472
428.7	140600	0.00051
428.7	154900	0.000542
428.7	182900	0.00061
428.7	210700	0.000686
428.7	221500	0.000702
428.7	239300	0.000757
523.2	22500	0.000136
523.2	35500	0.00016
523.2	60100	0.000203
523.2	70300	0.000221
523.2	86600	0.000244
523.2	115000	0.000288
523.2	126600	0.000306
523.2	140900	0.000329
523.2	153900	0.000352
523.2	170200	0.000372
523.2	189900	0.0004
523.2	202600	0.00042
523.2	223300	0.000452
523.2	242200	0.000477
308.15	101	0.000444
313.15	101	0.000424
318.15	101	0.000402
303.2	3100	0.0004913
313.3	3100	0.0004426
323.2	3100	0.0003961
333.2	3100	0.0003634
343.2	3100	0.0003311
353.1	3100	0.0003013
363.2	3100	0.0002765
373.3	3100	0.000254
383	3100	0.000234
393.1	3100	0.0002205
403.2	3100	0.0002019
413.2	3100	0.0001905
423.2	3100	0.0001761
433.1	3100	0.0001643
443.2	3100	0.0001526
453.1	3100	0.0001417
463.2	3100	0.0001321
473.1	3100	0.0001228
483.1	3100	0.0001138
493.1	3100	0.0001068
503	3100	9.93E-05
513.2	3100	9.01E-05
523.3	3100	8.25E-05
533.4	3100	7.53E-05
543.4	3100	6.78E-05
553.4	3100	6.07E-05
563.3	3100	5.32E-05
573.3	3100	4.44E-05
583.1	3100	3.25E-05
303.2	3100	0.0004948
313.3	3100	0.0004431
323.2	3100	0.0003979
333.2	3100	0.0003617
343.2	3100	0.0003308
353.1	3100	0.0003032
363.2	3100	0.0002775
373.3	3100	0.000258
383	3100	0.0002379
393.1	3100	0.0002202
403.2	3100	0.000204
413.2	3100	0.0001902
423.2	3100	0.0001775
433.1	3100	0.0001642
443.2	3100	0.0001514
453.1	3100	0.0001428
463.2	3100	0.0001318
473.1	3100	0.0001241
483.1	3100	0.0001152
493.1	3100	0.0001072
503	3100	9.83E-05
513.2	3100	9.04E-05
523.3	3100	8.26E-05
533.4	3100	7.51E-05
543.4	3100	6.78E-05
553.4	3100	6.09E-05
563.3	3100	5.34E-05
573.3	3100	4.46E-05
583.1	3100	3.23E-05
303.2	5100	0.0005014
353.1	5100	0.0003078
403.2	5100	0.000207
453.1	5100	0.0001465
503	5100	0.0001049
553.4	5100	6.92E-05
293.21	8004	0.0005874
293.213	13010	0.0006183
293.214	1996	0.0005512
293.214	30002	0.0007285
293.216	6001	0.0005752
293.216	10009	0.0005997
293.217	3994	0.0005631
293.218	28004	0.0007152
293.219	16009	0.0006371
293.219	22012	0.0006759
293.22	19011	0.0006566
293.22	25004	0.0006954
313.102	19006	0.0005234
313.103	21998	0.0005385
313.103	25000	0.0005539
313.103	27998	0.0005694
313.103	30001	0.0005798
313.104	5999	0.0004593
313.105	16009	0.0005083
313.106	7997	0.000469
313.106	10009	0.0004788
313.106	13005	0.0004935
313.107	2007	0.0004402
313.109	4000	0.0004497
333.005	22003	0.0004414
333.006	19006	0.0004289
333.007	30012	0.0004751
333.008	2005	0.0003601
333.008	3993	0.0003681
333.008	8014	0.0003841
333.008	25006	0.0004539
333.008	28003	0.0004666
333.009	5998	0.0003761
333.009	13004	0.0004043
333.009	16002	0.0004166
333.01	10007	0.0003921
353.118	3999	0.0003043
353.119	2008	0.0002974
353.12	19000	0.0003563
353.12	30004	0.0003954
353.121	6000	0.0003112
353.121	8001	0.0003181
353.122	10006	0.000325
353.122	28008	0.0003882
353.123	25005	0.0003775
353.124	22003	0.0003669
353.126	16004	0.0003458
353.127	13003	0.0003354
288.15	101.325	0.000585
293.15	101.325	0.000552
298.15	101.325	0.000523
303.15	101.325	0.000496
308.15	101.325	0.000473
313.15	101.325	0.00045
318.15	101.325	0.000431
323.15	101.325	0.000412
328.15	101.325	0.000395
333.15	101.325	0.000379
338.15	101.325	0.000365
343.15	101.325	0.000352
